*FILE_COMMENT ""
*FILE_MD5 ""
*FILE_MEMO ""
*FILE_OPERATOR "Administrator"
*FILE_PACKAGE_NAME ""
*FILE_PART_ID "GeneralMeasurement"
*FILE_SAMPLE ""
*FILE_SYSTEM_NAME "MiniFlex"
*FILE_TYPE "RAS_RAW"
*FILE_USERGROUP "Administrators"
*FILE_VERSION "1"
*HW_ATTACHMENT_NAME_INTERNAL "ASC8"
*HW_COUNTER_ID-0 "CUT0025"
*HW_COUNTER_ID-2 "CMC0020"
*HW_COUNTER_MONOCHRO_ID "CMC0020"
*HW_COUNTER_MONOCHRO_NAME "None"
*HW_COUNTER_MONOCHRO_NAME_INTERNAL "None"
*HW_COUNTER_NAME_INTERNAL "DteX100"
*HW_COUNTER_NAME-0 "DteX100"
*HW_COUNTER_NAME-1 "None"
*HW_COUNTER_NAME-2 "None"
*HW_COUNTER_PIXEL_SIZE "0.1"
*HW_COUNTER_SELECT_NAME "DteX100"
*HW_GONIOMETER_ID "GON0021"
*HW_GONIOMETER_NAME "Standard"
*HW_GONIOMETER_NAME_INTERNAL "Standard"
*HW_GONIOMETER_RADIUS-0 "90.0"
*HW_GONIOMETER_RADIUS-1 "114.0"
*HW_GONIOMETER_RADIUS-2 "91.5"
*HW_GONIOMETER_RADIUS-3 "150.0"
*HW_GONIOMETER_RADIUS-4 "103.4"
*HW_GONIOMETER_RADIUS-5 "150.0"
*HW_GONIOMETER_RADIUS-6 "46.6"
*HW_GONIOMETER_RADIUS-7 "150.0"
*HW_I_CBO_ID "CBO0020"
*HW_I_CBO_NAME "No_unit"
*HW_I_CBO_NAME_INTERNAL "No_unit"
*HW_I_MONOCHRO_NAME_INTERNAL "Manual"
*HW_I_OPT_ID-1 "CBO0020"
*HW_I_PRIMARY_NAME_INTERNAL "No_unit"
*HW_I_SLIT_NAME_INTERNAL "Manual"
*HW_R_ATTENUATER_AUTOMODE "0"
*HW_R_ATTENUATER_ID "ATN0020"
*HW_R_ATTENUATER_NAME "No_unit"
*HW_R_ATTENUATOR_NAME_INTERNAL "No_unit"
*HW_R_OPT_ID-1 "RCR0023"
*HW_R_OPT_ID-4 "ATN0020"
*HW_R_ROD_ID "RCR0023"
*HW_R_ROD_NAME "No_unit"
*HW_R_ROD_NAME_INTERNAL "No_unit"
*HW_R_RPS_NAME_INTERNAL "Manual"
*HW_R_RS_NAME_INTERNAL "Manual"
*HW_R_SS_NAME_INTERNAL "Manual"
*HW_SAMPLE_HOLDER_NAME_INTERNAL "None"
*HW_SAMPLE_NAME "None"
*HW_SAMPLE_NAME_INTERNAL "None"
*HW_SAMPLE_PLATE_NAME "None"
*HW_SAMPLE_PLATE_NAME_INTERNAL "None"
*HW_SAMPLE_SPACER_NAME "None"
*HW_SAMPLE_SPACER_NAME_INTERNAL "None"
*HW_USERINFO_CATALOG_NO ""
*HW_USERINFO_INSTRUMENT_ID ""
*HW_USERINFO_INSTRUMENT_NAME ""
*HW_USERINFO_INSTRUMENT_NO ""
*HW_USERINFO_MODEL ""
*HW_USERINFO_ORDER_NO ""
*HW_USERINFO_SERIAL_NO ""
*HW_USERINFO_VERIFY_INSTRUMENT_ID "00-07-fe-03-00-df"
*HW_VER_RCD_COUNTER_UNIT "N/A"
*HW_VER_RCD_CPU "10.0.1"
*HW_VER_RCD_FPGA "3.0.1"
*HW_VER_RCD_GONIO_UNIT "0.0.0"
*HW_VER_RCD_INCIDENT_UNIT "0.0.0"
*HW_VER_RCD_RECEIVING_UNIT "0.0.0"
*HW_VER_RCD_TYPE "RINCII"
*HW_VER_XGC_CPU "10.0.1"
*HW_VER_XGC_CW "5.0.0"
*HW_VER_XGC_HV "5.0.0"
*HW_VER_XGC_RS1 "5.0.0"
*HW_VER_XGC_RS2 "N/A"
*HW_VER_XGC_RT "N/A"
*HW_VER_XGC_TYPE "RINCII"
*HW_XG_CURRENT_UNIT "mA"
*HW_XG_FOCUS "0.4mm x 8mm"
*HW_XG_FOCUS_TYPE "Fine"
*HW_XG_TARGET_ATOMIC_NUMBER "29"
*HW_XG_TARGET_NAME "Cu"
*HW_XG_TYPE "Hermetic"
*HW_XG_VOLTAGE_UNIT "kV"
*HW_XG_WAVE_LENGTH_ALPHA1 "1.540593"
*HW_XG_WAVE_LENGTH_ALPHA2 "1.544414"
*HW_XG_WAVE_LENGTH_BETA "1.392246"
*HW_XG_WAVE_LENGTH_UNIT "Angstrom"
*MEAS_COND_AXIS_NAME_INTERNAL-0 "TwoThetaTheta"
*MEAS_COND_AXIS_NAME_INTERNAL-1 "IncidentSollerSlit"
*MEAS_COND_AXIS_NAME_INTERNAL-10 "Changer"
*MEAS_COND_AXIS_NAME_INTERNAL-11 "ReceivingSlitBox1"
*MEAS_COND_AXIS_NAME_INTERNAL-12 "ReceivingSlitBox1"
*MEAS_COND_AXIS_NAME_INTERNAL-13 "ReceivingSlitBox1"
*MEAS_COND_AXIS_NAME_INTERNAL-14 "Filter"
*MEAS_COND_AXIS_NAME_INTERNAL-15 "ReceivingSollerSlit"
*MEAS_COND_AXIS_NAME_INTERNAL-16 "ReceivingSlitBox2"
*MEAS_COND_AXIS_NAME_INTERNAL-17 "ReceivingSlitBox2"
*MEAS_COND_AXIS_NAME_INTERNAL-18 "ReceivingSlitBox2"
*MEAS_COND_AXIS_NAME_INTERNAL-19 "PHA"
*MEAS_COND_AXIS_NAME_INTERNAL-2 "IncidentSlitBox"
*MEAS_COND_AXIS_NAME_INTERNAL-20 "RS3"
*MEAS_COND_AXIS_NAME_INTERNAL-21 "Target_TargetTime"
*MEAS_COND_AXIS_NAME_INTERNAL-22 "Target_XrayOnTime"
*MEAS_COND_AXIS_NAME_INTERNAL-23 "Target_TMPTime"
*MEAS_COND_AXIS_NAME_INTERNAL-24 "Target_RPTime"
*MEAS_COND_AXIS_NAME_INTERNAL-25 "Target_FilamentTime"
*MEAS_COND_AXIS_NAME_INTERNAL-26 "Target_IG"
*MEAS_COND_AXIS_NAME_INTERNAL-27 "Target_GP"
*MEAS_COND_AXIS_NAME_INTERNAL-28 "Target_FC"
*MEAS_COND_AXIS_NAME_INTERNAL-29 "HVPS_Bias"
*MEAS_COND_AXIS_NAME_INTERNAL-3 "IncidentSlitBox"
*MEAS_COND_AXIS_NAME_INTERNAL-30 "HVPS_HVPSTime"
*MEAS_COND_AXIS_NAME_INTERNAL-31 "HVPS_Type1Time"
*MEAS_COND_AXIS_NAME_INTERNAL-32 "HVPS_Type2Time"
*MEAS_COND_AXIS_NAME_INTERNAL-33 "HVPS_Type3Time"
*MEAS_COND_AXIS_NAME_INTERNAL-34 "CW_IERTime"
*MEAS_COND_AXIS_NAME_INTERNAL-35 "CW_ECTime"
*MEAS_COND_AXIS_NAME_INTERNAL-36 "CW_Flow1"
*MEAS_COND_AXIS_NAME_INTERNAL-37 "CW_Temperature1"
*MEAS_COND_AXIS_NAME_INTERNAL-38 "CW_Pressure1"
*MEAS_COND_AXIS_NAME_INTERNAL-39 "CW_PressureIn"
*MEAS_COND_AXIS_NAME_INTERNAL-4 "IncidentSlitBox"
*MEAS_COND_AXIS_NAME_INTERNAL-40 "CW_PressureOut"
*MEAS_COND_AXIS_NAME_INTERNAL-41 "CW_Flow2"
*MEAS_COND_AXIS_NAME_INTERNAL-42 "CW_Temperature2"
*MEAS_COND_AXIS_NAME_INTERNAL-43 "CW_Pressure2"
*MEAS_COND_AXIS_NAME_INTERNAL-44 "RE_EnclosureTemp"
*MEAS_COND_AXIS_NAME_INTERNAL-45 "RE_EnclosureHummidity"
*MEAS_COND_AXIS_NAME_INTERNAL-46 "RE_CabinetTemp"
*MEAS_COND_AXIS_NAME_INTERNAL-47 "RE_RPTemp"
*MEAS_COND_AXIS_NAME_INTERNAL-48 "RE_ShutterAXrayOnTime"
*MEAS_COND_AXIS_NAME_INTERNAL-49 "RE_ShutterATimes"
*MEAS_COND_AXIS_NAME_INTERNAL-5 "IncidentAxdSlit"
*MEAS_COND_AXIS_NAME_INTERNAL-50 "RE_ShutterAOpenCloseTime"
*MEAS_COND_AXIS_NAME_INTERNAL-51 "RE_ShutterACloseOpenTime"
*MEAS_COND_AXIS_NAME_INTERNAL-52 "RE_ShutterBXrayOnTime"
*MEAS_COND_AXIS_NAME_INTERNAL-53 "RE_ShutterBTimes"
*MEAS_COND_AXIS_NAME_INTERNAL-54 "RE_ShutterBOpenCloseTime"
*MEAS_COND_AXIS_NAME_INTERNAL-55 "RE_ShutterBCloseOpenTime"
*MEAS_COND_AXIS_NAME_INTERNAL-56 "RE_XrayWarningRamp"
*MEAS_COND_AXIS_NAME_INTERNAL-57 "RE_ShutterAInstallation"
*MEAS_COND_AXIS_NAME_INTERNAL-58 "RE_ShutterARamp"
*MEAS_COND_AXIS_NAME_INTERNAL-59 "RE_ShutterBInstallation"
*MEAS_COND_AXIS_NAME_INTERNAL-6 "IncidentAxdSlit"
*MEAS_COND_AXIS_NAME_INTERNAL-60 "RE_ShutterBRamp"
*MEAS_COND_AXIS_NAME_INTERNAL-61 "RE_ExtShutterCLS"
*MEAS_COND_AXIS_NAME_INTERNAL-62 "RE_ExtXrayOFF"
*MEAS_COND_AXIS_NAME_INTERNAL-63 "RE_ExtSafetyCircuit"
*MEAS_COND_AXIS_NAME_INTERNAL-64 "Version_CPU"
*MEAS_COND_AXIS_NAME_INTERNAL-65 "Version_RS1"
*MEAS_COND_AXIS_NAME_INTERNAL-66 "Version_RS2"
*MEAS_COND_AXIS_NAME_INTERNAL-67 "Version_HV"
*MEAS_COND_AXIS_NAME_INTERNAL-68 "Version_CW"
*MEAS_COND_AXIS_NAME_INTERNAL-69 "Version_RT"
*MEAS_COND_AXIS_NAME_INTERNAL-7 "IncidentAxdSlit"
*MEAS_COND_AXIS_NAME_INTERNAL-70 "IncidentPrimary"
*MEAS_COND_AXIS_NAME_INTERNAL-71 "IncidentMonochromator"
*MEAS_COND_AXIS_NAME_INTERNAL-72 "ReceivingOptics"
*MEAS_COND_AXIS_NAME_INTERNAL-73 "CounterMonochromatorKind"
*MEAS_COND_AXIS_NAME_INTERNAL-8 "Filter"
*MEAS_COND_AXIS_NAME_INTERNAL-9 "Beta"
*MEAS_COND_AXIS_NAME-0 "TwoThetaTheta"
*MEAS_COND_AXIS_NAME-1 "IncidentSollerSlit"
*MEAS_COND_AXIS_NAME-10 "Changer"
*MEAS_COND_AXIS_NAME-11 "ReceivingSlitBox1"
*MEAS_COND_AXIS_NAME-12 "ReceivingSlitBox1-_Axis"
*MEAS_COND_AXIS_NAME-13 "SlitSS"
*MEAS_COND_AXIS_NAME-14 "Filter"
*MEAS_COND_AXIS_NAME-15 "ReceivingSollerSlit"
*MEAS_COND_AXIS_NAME-16 "ReceivingSlitBox2"
*MEAS_COND_AXIS_NAME-17 "ReceivingSlitBox2-_Axis"
*MEAS_COND_AXIS_NAME-18 "SlitRS"
*MEAS_COND_AXIS_NAME-19 "PHA"
*MEAS_COND_AXIS_NAME-2 "IncidentSlitBox"
*MEAS_COND_AXIS_NAME-20 "RS3"
*MEAS_COND_AXIS_NAME-21 "Target_TargetTime"
*MEAS_COND_AXIS_NAME-22 "Target_XrayOnTime"
*MEAS_COND_AXIS_NAME-23 "Target_TMPTime"
*MEAS_COND_AXIS_NAME-24 "Target_RPTime"
*MEAS_COND_AXIS_NAME-25 "Target_FilamentTime"
*MEAS_COND_AXIS_NAME-26 "Target_IG"
*MEAS_COND_AXIS_NAME-27 "Target_GP"
*MEAS_COND_AXIS_NAME-28 "Target_FC"
*MEAS_COND_AXIS_NAME-29 "HVPS_Bias"
*MEAS_COND_AXIS_NAME-3 "IncidentSlitBox-_Axis"
*MEAS_COND_AXIS_NAME-30 "HVPS_HVPSTime"
*MEAS_COND_AXIS_NAME-31 "HVPS_Type1Time"
*MEAS_COND_AXIS_NAME-32 "HVPS_Type2Time"
*MEAS_COND_AXIS_NAME-33 "HVPS_Type3Time"
*MEAS_COND_AXIS_NAME-34 "CW_IERTime"
*MEAS_COND_AXIS_NAME-35 "CW_ECTime"
*MEAS_COND_AXIS_NAME-36 "CW_Flow1"
*MEAS_COND_AXIS_NAME-37 "CW_Temperature1"
*MEAS_COND_AXIS_NAME-38 "CW_Pressure1"
*MEAS_COND_AXIS_NAME-39 "CW_PressureIn"
*MEAS_COND_AXIS_NAME-4 "SlitDS"
*MEAS_COND_AXIS_NAME-40 "CW_PressureOut"
*MEAS_COND_AXIS_NAME-41 "CW_Flow2"
*MEAS_COND_AXIS_NAME-42 "CW_Temperature2"
*MEAS_COND_AXIS_NAME-43 "CW_Pressure2"
*MEAS_COND_AXIS_NAME-44 "RE_EnclosureTemp"
*MEAS_COND_AXIS_NAME-45 "RE_EnclosureHummidity"
*MEAS_COND_AXIS_NAME-46 "RE_CabinetTemp"
*MEAS_COND_AXIS_NAME-47 "RE_RPTemp"
*MEAS_COND_AXIS_NAME-48 "RE_ShutterAXrayOnTime"
*MEAS_COND_AXIS_NAME-49 "RE_ShutterATimes"
*MEAS_COND_AXIS_NAME-5 "IncidentAxdSlit"
*MEAS_COND_AXIS_NAME-50 "RE_ShutterAOpenCloseTime"
*MEAS_COND_AXIS_NAME-51 "RE_ShutterACloseOpenTime"
*MEAS_COND_AXIS_NAME-52 "RE_ShutterBXrayOnTime"
*MEAS_COND_AXIS_NAME-53 "RE_ShutterBTimes"
*MEAS_COND_AXIS_NAME-54 "RE_ShutterBOpenCloseTime"
*MEAS_COND_AXIS_NAME-55 "RE_ShutterBCloseOpenTime"
*MEAS_COND_AXIS_NAME-56 "RE_XrayWarningRamp"
*MEAS_COND_AXIS_NAME-57 "RE_ShutterAInstallation"
*MEAS_COND_AXIS_NAME-58 "RE_ShutterARamp"
*MEAS_COND_AXIS_NAME-59 "RE_ShutterBInstallation"
*MEAS_COND_AXIS_NAME-6 "LLS"
*MEAS_COND_AXIS_NAME-60 "RE_ShutterBRamp"
*MEAS_COND_AXIS_NAME-61 "RE_ExtShutterCLS"
*MEAS_COND_AXIS_NAME-62 "RE_ExtXrayOFF"
*MEAS_COND_AXIS_NAME-63 "RE_ExtSafetyCircuit"
*MEAS_COND_AXIS_NAME-64 "Version_CPU"
*MEAS_COND_AXIS_NAME-65 "Version_RS1"
*MEAS_COND_AXIS_NAME-66 "Version_RS2"
*MEAS_COND_AXIS_NAME-67 "Version_HV"
*MEAS_COND_AXIS_NAME-68 "Version_CW"
*MEAS_COND_AXIS_NAME-69 "Version_RT"
*MEAS_COND_AXIS_NAME-7 "DHLSlit"
*MEAS_COND_AXIS_NAME-70 "IncidentPrimary"
*MEAS_COND_AXIS_NAME-71 "IncidentMonochromator"
*MEAS_COND_AXIS_NAME-72 "ReceivingOptics"
*MEAS_COND_AXIS_NAME-73 "CounterMonochromatorKind"
*MEAS_COND_AXIS_NAME-8 "Filter"
*MEAS_COND_AXIS_NAME-9 "Beta"
*MEAS_COND_AXIS_OFFSET-0 "0"
*MEAS_COND_AXIS_OFFSET-1 "0"
*MEAS_COND_AXIS_OFFSET-10 "0"
*MEAS_COND_AXIS_OFFSET-11 "0"
*MEAS_COND_AXIS_OFFSET-12 "0"
*MEAS_COND_AXIS_OFFSET-13 "0"
*MEAS_COND_AXIS_OFFSET-14 "0"
*MEAS_COND_AXIS_OFFSET-15 "0"
*MEAS_COND_AXIS_OFFSET-16 "0"
*MEAS_COND_AXIS_OFFSET-17 "0"
*MEAS_COND_AXIS_OFFSET-18 "0"
*MEAS_COND_AXIS_OFFSET-19 "0"
*MEAS_COND_AXIS_OFFSET-2 "0"
*MEAS_COND_AXIS_OFFSET-20 "0"
*MEAS_COND_AXIS_OFFSET-21 "0"
*MEAS_COND_AXIS_OFFSET-22 "0"
*MEAS_COND_AXIS_OFFSET-23 "0"
*MEAS_COND_AXIS_OFFSET-24 "0"
*MEAS_COND_AXIS_OFFSET-25 "0"
*MEAS_COND_AXIS_OFFSET-26 "0"
*MEAS_COND_AXIS_OFFSET-27 "0"
*MEAS_COND_AXIS_OFFSET-28 "0"
*MEAS_COND_AXIS_OFFSET-29 "0"
*MEAS_COND_AXIS_OFFSET-3 "0"
*MEAS_COND_AXIS_OFFSET-30 "0"
*MEAS_COND_AXIS_OFFSET-31 "0"
*MEAS_COND_AXIS_OFFSET-32 "0"
*MEAS_COND_AXIS_OFFSET-33 "0"
*MEAS_COND_AXIS_OFFSET-34 "0"
*MEAS_COND_AXIS_OFFSET-35 "0"
*MEAS_COND_AXIS_OFFSET-36 "0"
*MEAS_COND_AXIS_OFFSET-37 "0"
*MEAS_COND_AXIS_OFFSET-38 "0"
*MEAS_COND_AXIS_OFFSET-39 "0"
*MEAS_COND_AXIS_OFFSET-4 "0"
*MEAS_COND_AXIS_OFFSET-40 "0"
*MEAS_COND_AXIS_OFFSET-41 "0"
*MEAS_COND_AXIS_OFFSET-42 "0"
*MEAS_COND_AXIS_OFFSET-43 "0"
*MEAS_COND_AXIS_OFFSET-44 "0"
*MEAS_COND_AXIS_OFFSET-45 "0"
*MEAS_COND_AXIS_OFFSET-46 "0"
*MEAS_COND_AXIS_OFFSET-47 "0"
*MEAS_COND_AXIS_OFFSET-48 "0"
*MEAS_COND_AXIS_OFFSET-49 "0"
*MEAS_COND_AXIS_OFFSET-5 "0"
*MEAS_COND_AXIS_OFFSET-50 "0"
*MEAS_COND_AXIS_OFFSET-51 "0"
*MEAS_COND_AXIS_OFFSET-52 "0"
*MEAS_COND_AXIS_OFFSET-53 "0"
*MEAS_COND_AXIS_OFFSET-54 "0"
*MEAS_COND_AXIS_OFFSET-55 "0"
*MEAS_COND_AXIS_OFFSET-56 "0"
*MEAS_COND_AXIS_OFFSET-57 "0"
*MEAS_COND_AXIS_OFFSET-58 "0"
*MEAS_COND_AXIS_OFFSET-59 "0"
*MEAS_COND_AXIS_OFFSET-6 "0"
*MEAS_COND_AXIS_OFFSET-60 "0"
*MEAS_COND_AXIS_OFFSET-61 "0"
*MEAS_COND_AXIS_OFFSET-62 "0"
*MEAS_COND_AXIS_OFFSET-63 "0"
*MEAS_COND_AXIS_OFFSET-64 "0"
*MEAS_COND_AXIS_OFFSET-65 "0"
*MEAS_COND_AXIS_OFFSET-66 "0"
*MEAS_COND_AXIS_OFFSET-67 "0"
*MEAS_COND_AXIS_OFFSET-68 "0"
*MEAS_COND_AXIS_OFFSET-69 "0"
*MEAS_COND_AXIS_OFFSET-7 "0"
*MEAS_COND_AXIS_OFFSET-70 "0"
*MEAS_COND_AXIS_OFFSET-71 "0"
*MEAS_COND_AXIS_OFFSET-72 "0"
*MEAS_COND_AXIS_OFFSET-73 "0"
*MEAS_COND_AXIS_OFFSET-8 "0"
*MEAS_COND_AXIS_OFFSET-9 "0"
*MEAS_COND_AXIS_POSITION-0 "12.0000"
*MEAS_COND_AXIS_POSITION-1 "Soller_slit_2.5deg"
*MEAS_COND_AXIS_POSITION-10 "3"
*MEAS_COND_AXIS_POSITION-11 "8.0mm"
*MEAS_COND_AXIS_POSITION-12 "8.0mm"
*MEAS_COND_AXIS_POSITION-13 "8.0mm"
*MEAS_COND_AXIS_POSITION-14 "K_beta_x1.5"
*MEAS_COND_AXIS_POSITION-15 "Soller_slit_2.5deg"
*MEAS_COND_AXIS_POSITION-16 "Open"
*MEAS_COND_AXIS_POSITION-17 "Open"
*MEAS_COND_AXIS_POSITION-18 "Open"
*MEAS_COND_AXIS_POSITION-19 "43"
*MEAS_COND_AXIS_POSITION-2 "1.25deg"
*MEAS_COND_AXIS_POSITION-20 "Open"
*MEAS_COND_AXIS_POSITION-3 "1.25deg"
*MEAS_COND_AXIS_POSITION-4 "1.25deg"
*MEAS_COND_AXIS_POSITION-5 "10mm"
*MEAS_COND_AXIS_POSITION-6 "10mm"
*MEAS_COND_AXIS_POSITION-7 "10mm"
*MEAS_COND_AXIS_POSITION-70 "No_unit"
*MEAS_COND_AXIS_POSITION-71 "Manual"
*MEAS_COND_AXIS_POSITION-72 "No_unit"
*MEAS_COND_AXIS_POSITION-73 "None"
*MEAS_COND_AXIS_POSITION-8 "None"
*MEAS_COND_AXIS_RESOLUTION-0 "0.0025"
*MEAS_COND_AXIS_RESOLUTION-1 ""
*MEAS_COND_AXIS_RESOLUTION-10 "1"
*MEAS_COND_AXIS_RESOLUTION-11 ""
*MEAS_COND_AXIS_RESOLUTION-12 ""
*MEAS_COND_AXIS_RESOLUTION-13 ""
*MEAS_COND_AXIS_RESOLUTION-14 ""
*MEAS_COND_AXIS_RESOLUTION-15 ""
*MEAS_COND_AXIS_RESOLUTION-16 ""
*MEAS_COND_AXIS_RESOLUTION-17 ""
*MEAS_COND_AXIS_RESOLUTION-18 ""
*MEAS_COND_AXIS_RESOLUTION-19 "1"
*MEAS_COND_AXIS_RESOLUTION-2 ""
*MEAS_COND_AXIS_RESOLUTION-20 "0.1"
*MEAS_COND_AXIS_RESOLUTION-21 "0.01"
*MEAS_COND_AXIS_RESOLUTION-22 "0.010000"
*MEAS_COND_AXIS_RESOLUTION-23 "0.01"
*MEAS_COND_AXIS_RESOLUTION-24 "0.01"
*MEAS_COND_AXIS_RESOLUTION-25 "0.01"
*MEAS_COND_AXIS_RESOLUTION-26 "1"
*MEAS_COND_AXIS_RESOLUTION-27 "1"
*MEAS_COND_AXIS_RESOLUTION-28 "0.01"
*MEAS_COND_AXIS_RESOLUTION-29 "1"
*MEAS_COND_AXIS_RESOLUTION-3 ""
*MEAS_COND_AXIS_RESOLUTION-30 "0.01"
*MEAS_COND_AXIS_RESOLUTION-31 "0.01"
*MEAS_COND_AXIS_RESOLUTION-32 "0.01"
*MEAS_COND_AXIS_RESOLUTION-33 "0.01"
*MEAS_COND_AXIS_RESOLUTION-34 "0.010000"
*MEAS_COND_AXIS_RESOLUTION-35 "1"
*MEAS_COND_AXIS_RESOLUTION-36 "0.100000"
*MEAS_COND_AXIS_RESOLUTION-37 "1.000000"
*MEAS_COND_AXIS_RESOLUTION-38 "0.010000"
*MEAS_COND_AXIS_RESOLUTION-39 "0.01"
*MEAS_COND_AXIS_RESOLUTION-4 ""
*MEAS_COND_AXIS_RESOLUTION-40 "0.01"
*MEAS_COND_AXIS_RESOLUTION-41 "0.1"
*MEAS_COND_AXIS_RESOLUTION-42 "1"
*MEAS_COND_AXIS_RESOLUTION-43 "0.01"
*MEAS_COND_AXIS_RESOLUTION-44 "1.000000"
*MEAS_COND_AXIS_RESOLUTION-45 "1"
*MEAS_COND_AXIS_RESOLUTION-46 "1.000000"
*MEAS_COND_AXIS_RESOLUTION-47 "1"
*MEAS_COND_AXIS_RESOLUTION-48 "0.01"
*MEAS_COND_AXIS_RESOLUTION-49 "1"
*MEAS_COND_AXIS_RESOLUTION-5 ""
*MEAS_COND_AXIS_RESOLUTION-50 "1"
*MEAS_COND_AXIS_RESOLUTION-51 "1"
*MEAS_COND_AXIS_RESOLUTION-52 "0.01"
*MEAS_COND_AXIS_RESOLUTION-53 "1.000000"
*MEAS_COND_AXIS_RESOLUTION-54 "1.000000"
*MEAS_COND_AXIS_RESOLUTION-55 "1.000000"
*MEAS_COND_AXIS_RESOLUTION-56 "-"
*MEAS_COND_AXIS_RESOLUTION-57 "-"
*MEAS_COND_AXIS_RESOLUTION-58 "-"
*MEAS_COND_AXIS_RESOLUTION-59 "1.000000"
*MEAS_COND_AXIS_RESOLUTION-6 ""
*MEAS_COND_AXIS_RESOLUTION-60 "-"
*MEAS_COND_AXIS_RESOLUTION-61 "-"
*MEAS_COND_AXIS_RESOLUTION-62 "-"
*MEAS_COND_AXIS_RESOLUTION-63 "1.000000"
*MEAS_COND_AXIS_RESOLUTION-64 "1.000000"
*MEAS_COND_AXIS_RESOLUTION-65 "1.000000"
*MEAS_COND_AXIS_RESOLUTION-66 "1.000000"
*MEAS_COND_AXIS_RESOLUTION-67 "1.000000"
*MEAS_COND_AXIS_RESOLUTION-68 "1.000000"
*MEAS_COND_AXIS_RESOLUTION-69 "1.000000"
*MEAS_COND_AXIS_RESOLUTION-7 ""
*MEAS_COND_AXIS_RESOLUTION-8 ""
*MEAS_COND_AXIS_RESOLUTION-9 "0.9"
*MEAS_COND_AXIS_SPEED_RESOLUTION-9 "0.1"
*MEAS_COND_AXIS_SPEED_UNIT-9 "rpm"
*MEAS_COND_AXIS_SPEED-9 "80"
*MEAS_COND_AXIS_STATE-0 "Scan"
*MEAS_COND_AXIS_STATE-1 "Fixed"
*MEAS_COND_AXIS_STATE-10 "Fixed"
*MEAS_COND_AXIS_STATE-11 "Fixed"
*MEAS_COND_AXIS_STATE-12 "Fixed"
*MEAS_COND_AXIS_STATE-13 "Fixed"
*MEAS_COND_AXIS_STATE-14 "Fixed"
*MEAS_COND_AXIS_STATE-15 "Fixed"
*MEAS_COND_AXIS_STATE-16 "Fixed"
*MEAS_COND_AXIS_STATE-17 "Fixed"
*MEAS_COND_AXIS_STATE-18 "Fixed"
*MEAS_COND_AXIS_STATE-19 "Fixed"
*MEAS_COND_AXIS_STATE-2 "Fixed"
*MEAS_COND_AXIS_STATE-20 "Fixed"
*MEAS_COND_AXIS_STATE-21 "Fixed"
*MEAS_COND_AXIS_STATE-22 "Fixed"
*MEAS_COND_AXIS_STATE-23 "Fixed"
*MEAS_COND_AXIS_STATE-24 "Fixed"
*MEAS_COND_AXIS_STATE-25 "Fixed"
*MEAS_COND_AXIS_STATE-26 "Fixed"
*MEAS_COND_AXIS_STATE-27 "Fixed"
*MEAS_COND_AXIS_STATE-28 "Fixed"
*MEAS_COND_AXIS_STATE-29 "Fixed"
*MEAS_COND_AXIS_STATE-3 "Fixed"
*MEAS_COND_AXIS_STATE-30 "Fixed"
*MEAS_COND_AXIS_STATE-31 "Fixed"
*MEAS_COND_AXIS_STATE-32 "Fixed"
*MEAS_COND_AXIS_STATE-33 "Fixed"
*MEAS_COND_AXIS_STATE-34 "Fixed"
*MEAS_COND_AXIS_STATE-35 "Fixed"
*MEAS_COND_AXIS_STATE-36 "Fixed"
*MEAS_COND_AXIS_STATE-37 "Fixed"
*MEAS_COND_AXIS_STATE-38 "Fixed"
*MEAS_COND_AXIS_STATE-39 "Fixed"
*MEAS_COND_AXIS_STATE-4 "Fixed"
*MEAS_COND_AXIS_STATE-40 "Fixed"
*MEAS_COND_AXIS_STATE-41 "Fixed"
*MEAS_COND_AXIS_STATE-42 "Fixed"
*MEAS_COND_AXIS_STATE-43 "Fixed"
*MEAS_COND_AXIS_STATE-44 "Fixed"
*MEAS_COND_AXIS_STATE-45 "Fixed"
*MEAS_COND_AXIS_STATE-46 "Fixed"
*MEAS_COND_AXIS_STATE-47 "Fixed"
*MEAS_COND_AXIS_STATE-48 "Fixed"
*MEAS_COND_AXIS_STATE-49 "Fixed"
*MEAS_COND_AXIS_STATE-5 "Fixed"
*MEAS_COND_AXIS_STATE-50 "Fixed"
*MEAS_COND_AXIS_STATE-51 "Fixed"
*MEAS_COND_AXIS_STATE-52 "Fixed"
*MEAS_COND_AXIS_STATE-53 "Fixed"
*MEAS_COND_AXIS_STATE-54 "Fixed"
*MEAS_COND_AXIS_STATE-55 "Fixed"
*MEAS_COND_AXIS_STATE-56 "Fixed"
*MEAS_COND_AXIS_STATE-57 "Fixed"
*MEAS_COND_AXIS_STATE-58 "Fixed"
*MEAS_COND_AXIS_STATE-59 "Fixed"
*MEAS_COND_AXIS_STATE-6 "Fixed"
*MEAS_COND_AXIS_STATE-60 "Fixed"
*MEAS_COND_AXIS_STATE-61 "Fixed"
*MEAS_COND_AXIS_STATE-62 "Fixed"
*MEAS_COND_AXIS_STATE-63 "Fixed"
*MEAS_COND_AXIS_STATE-64 "Fixed"
*MEAS_COND_AXIS_STATE-65 "Fixed"
*MEAS_COND_AXIS_STATE-66 "Fixed"
*MEAS_COND_AXIS_STATE-67 "Fixed"
*MEAS_COND_AXIS_STATE-68 "Fixed"
*MEAS_COND_AXIS_STATE-69 "Fixed"
*MEAS_COND_AXIS_STATE-7 "Fixed"
*MEAS_COND_AXIS_STATE-8 "Fixed"
*MEAS_COND_AXIS_STATE-9 "Rotation"
*MEAS_COND_AXIS_UNIT-0 "deg"
*MEAS_COND_AXIS_UNIT-1 ""
*MEAS_COND_AXIS_UNIT-10 ""
*MEAS_COND_AXIS_UNIT-11 ""
*MEAS_COND_AXIS_UNIT-12 ""
*MEAS_COND_AXIS_UNIT-13 ""
*MEAS_COND_AXIS_UNIT-14 ""
*MEAS_COND_AXIS_UNIT-15 ""
*MEAS_COND_AXIS_UNIT-16 ""
*MEAS_COND_AXIS_UNIT-17 ""
*MEAS_COND_AXIS_UNIT-18 ""
*MEAS_COND_AXIS_UNIT-19 "div"
*MEAS_COND_AXIS_UNIT-2 ""
*MEAS_COND_AXIS_UNIT-20 ""
*MEAS_COND_AXIS_UNIT-21 "H"
*MEAS_COND_AXIS_UNIT-22 "H"
*MEAS_COND_AXIS_UNIT-23 "H"
*MEAS_COND_AXIS_UNIT-24 "H"
*MEAS_COND_AXIS_UNIT-25 "H"
*MEAS_COND_AXIS_UNIT-26 "mV"
*MEAS_COND_AXIS_UNIT-27 "V"
*MEAS_COND_AXIS_UNIT-28 "V"
*MEAS_COND_AXIS_UNIT-29 "V"
*MEAS_COND_AXIS_UNIT-3 ""
*MEAS_COND_AXIS_UNIT-30 "H"
*MEAS_COND_AXIS_UNIT-31 "H"
*MEAS_COND_AXIS_UNIT-32 "H"
*MEAS_COND_AXIS_UNIT-33 "H"
*MEAS_COND_AXIS_UNIT-34 "H"
*MEAS_COND_AXIS_UNIT-35 "uS/m"
*MEAS_COND_AXIS_UNIT-36 "L/min"
*MEAS_COND_AXIS_UNIT-37 "degree"
*MEAS_COND_AXIS_UNIT-38 "MPa"
*MEAS_COND_AXIS_UNIT-39 "MPa"
*MEAS_COND_AXIS_UNIT-4 ""
*MEAS_COND_AXIS_UNIT-40 "MPa"
*MEAS_COND_AXIS_UNIT-41 "L/min"
*MEAS_COND_AXIS_UNIT-42 "C"
*MEAS_COND_AXIS_UNIT-43 "MPa"
*MEAS_COND_AXIS_UNIT-44 "degree"
*MEAS_COND_AXIS_UNIT-45 "percent"
*MEAS_COND_AXIS_UNIT-46 "degree"
*MEAS_COND_AXIS_UNIT-47 "C"
*MEAS_COND_AXIS_UNIT-48 "H"
*MEAS_COND_AXIS_UNIT-49 "time"
*MEAS_COND_AXIS_UNIT-5 ""
*MEAS_COND_AXIS_UNIT-50 "msec"
*MEAS_COND_AXIS_UNIT-51 "msec"
*MEAS_COND_AXIS_UNIT-52 "H"
*MEAS_COND_AXIS_UNIT-53 "times"
*MEAS_COND_AXIS_UNIT-54 "msec"
*MEAS_COND_AXIS_UNIT-55 "msec"
*MEAS_COND_AXIS_UNIT-56 "-"
*MEAS_COND_AXIS_UNIT-57 "-"
*MEAS_COND_AXIS_UNIT-58 "-"
*MEAS_COND_AXIS_UNIT-59 ""
*MEAS_COND_AXIS_UNIT-6 ""
*MEAS_COND_AXIS_UNIT-60 "-"
*MEAS_COND_AXIS_UNIT-61 "-"
*MEAS_COND_AXIS_UNIT-62 "-"
*MEAS_COND_AXIS_UNIT-63 ""
*MEAS_COND_AXIS_UNIT-64 ""
*MEAS_COND_AXIS_UNIT-65 ""
*MEAS_COND_AXIS_UNIT-66 ""
*MEAS_COND_AXIS_UNIT-67 ""
*MEAS_COND_AXIS_UNIT-68 ""
*MEAS_COND_AXIS_UNIT-69 ""
*MEAS_COND_AXIS_UNIT-7 ""
*MEAS_COND_AXIS_UNIT-70 ""
*MEAS_COND_AXIS_UNIT-71 ""
*MEAS_COND_AXIS_UNIT-72 ""
*MEAS_COND_AXIS_UNIT-73 ""
*MEAS_COND_AXIS_UNIT-8 ""
*MEAS_COND_AXIS_UNIT-9 "deg"
*MEAS_COND_COUNTER_CENTER_X "0.5"
*MEAS_COND_COUNTER_CENTER_Y "67.34"
*MEAS_COND_COUNTER_COUNTMODE "Differential"
*MEAS_COND_COUNTER_DEADTIMECORRECTION "Enabled"
*MEAS_COND_COUNTER_DISTANCE "150"
*MEAS_COND_COUNTER_ENERGYMODE "XRFReduction"
*MEAS_COND_COUNTER_PHA_UNIT "div"
*MEAS_COND_COUNTER_PHABASE "43"
*MEAS_COND_COUNTER_PHAWINDOW "21"
*MEAS_COND_COUNTER_PITCH_X "20"
